  Detailed Percentile spectrum:
       Value   Percentile   TotalCount 1/(1-Percentile)

       0.357     0.000000            1         1.00
       2.389     0.100000         5089         1.11
       7.967     0.200000        10175         1.25
      11.351     0.300000        15259         1.43
      18.127     0.400000        20348         1.67
      32.991     0.500000        25433         2.00
      40.447     0.550000        27976         2.22
      48.735     0.600000        30515         2.50
      58.559     0.650000        33057         2.86
      70.591     0.700000        35598         3.33
      85.759     0.750000        38153         4.00
      94.847     0.775000        39412         4.44
     105.599     0.800000        40686         5.00
     118.911     0.825000        41961         5.71
     135.551     0.850000        43230         6.67
     152.959     0.875000        44499         8.00
     163.327     0.887500        45136         8.89
     175.487     0.900000        45775        10.00
     190.079     0.912500        46409        11.43
     206.207     0.925000        47040        13.33
     228.351     0.937500        47676        16.00
     239.999     0.943750        47995        17.78
     253.055     0.950000        48313        20.00
     267.263     0.956250        48632        22.86
     284.159     0.962500        48947        26.67
     302.335     0.968750        49265        32.00
     313.855     0.971875        49428        35.56
     327.935     0.975000        49584        40.00
     340.735     0.978125        49742        45.71
     357.375     0.981250        49901        53.33
     376.575     0.984375        50062        64.00
     387.327     0.985938        50139        71.11
     405.503     0.987500        50219        80.00
     423.167     0.989062        50299        91.43
     440.319     0.990625        50379       106.67
     463.615     0.992188        50458       128.00
     474.367     0.992969        50499       142.22
     486.143     0.993750        50537       160.00
     496.895     0.994531        50576       182.86
     510.975     0.995313        50616       213.33
     527.871     0.996094        50656       256.00
     540.159     0.996484        50677       284.44
     547.327     0.996875        50697       320.00
     556.031     0.997266        50715       365.71
     564.223     0.997656        50736       426.67
     577.535     0.998047        50755       512.00
     582.655     0.998242        50766       568.89
     588.287     0.998437        50775       640.00
     593.919     0.998633        50786       731.43
     601.087     0.998828        50795       853.33
     611.327     0.999023        50805      1024.00
     614.911     0.999121        50810      1137.78
     627.199     0.999219        50816      1280.00
     633.343     0.999316        50820      1462.86
     639.999     0.999414        50825      1706.67
     648.703     0.999512        50830      2048.00
     649.727     0.999561        50833      2275.56
     657.407     0.999609        50835      2560.00
     659.455     0.999658        50838      2925.71
     662.527     0.999707        50840      3413.33
     668.159     0.999756        50842      4096.00
     672.255     0.999780        50844      4551.11
     672.767     0.999805        50845      5120.00
     673.791     0.999829        50846      5851.43
     674.303     0.999854        50847      6826.67
     678.399     0.999878        50848      8192.00
     680.959     0.999890        50849      9102.22
     690.175     0.999902        50850     10240.00
     690.175     0.999915        50850     11702.86
     691.199     0.999927        50851     13653.33
     691.199     0.999939        50851     16384.00
     695.295     0.999945        50852     18204.44
     695.295     0.999951        50852     20480.00
     695.295     0.999957        50852     23405.71
     700.927     0.999963        50853     27306.67
     700.927     0.999969        50853     32768.00
     700.927     0.999973        50853     36408.89
     700.927     0.999976        50853     40960.00
     700.927     0.999979        50853     46811.43
     777.727     0.999982        50854     54613.33
     777.727     1.000000        50854          inf
#[Mean    =       65.996, StdDeviation   =       89.391]
#[Max     =      777.216, Total count    =        50854]
#[Buckets =           27, SubBuckets     =         2048]
----------------------------------------------------------
  53842 requests in 3.00m, 294.80MB read
Requests/sec:    299.10
Transfer/sec:      1.64MB
